Theta [deg.]  Phi   [deg.]  Abs(Dir.)[dBi   ]   Abs(Theta)[dBi   ]  Phase(Theta)[deg.]  Abs(Phi  )[dBi   ]  Phase(Phi  )[deg.]  Ax.Ratio[dB    ]    
------------------------------------------------------------------------------------------------------------------------------------------------------
   0.000          90.000           -1.223e+02          -1.251e+02             271.093          -1.256e+02              93.939           3.211e+01     
   1.000          90.000           -3.046e+01          -3.046e+01              80.771          -1.255e+02              94.042           4.000e+01     
   2.000          90.000           -2.444e+01          -2.444e+01              80.759          -1.255e+02              94.144           4.000e+01     
   3.000          90.000           -2.093e+01          -2.093e+01              80.739          -1.255e+02              94.246           4.000e+01     
   4.000          90.000           -1.845e+01          -1.845e+01              80.711          -1.254e+02              94.347           4.000e+01     
   5.000          90.000           -1.653e+01          -1.653e+01              80.675          -1.254e+02              94.447           4.000e+01     
   6.000          90.000           -1.497e+01          -1.497e+01              80.630          -1.254e+02              94.548           4.000e+01     
   7.000          90.000           -1.365e+01          -1.365e+01              80.577          -1.253e+02              94.648           4.000e+01     
   8.000          90.000           -1.253e+01          -1.253e+01              80.515          -1.253e+02              94.749           4.000e+01     
   9.000          90.000           -1.154e+01          -1.154e+01              80.445          -1.253e+02              94.850           4.000e+01     
  10.000          90.000           -1.066e+01          -1.066e+01              80.365          -1.252e+02              94.951           4.000e+01     
  11.000          90.000           -9.879e+00          -9.879e+00              80.276          -1.252e+02              95.054           4.000e+01     
  12.000          90.000           -9.173e+00          -9.173e+00              80.177          -1.252e+02              95.158           4.000e+01     
  13.000          90.000           -8.533e+00          -8.533e+00              80.068          -1.251e+02              95.264           4.000e+01     
  14.000          90.000           -7.950e+00          -7.950e+00              79.948          -1.251e+02              95.373           4.000e+01     
  15.000          90.000           -7.416e+00          -7.416e+00              79.817          -1.251e+02              95.484           4.000e+01     
  16.000          90.000           -6.928e+00          -6.928e+00              79.674          -1.250e+02              95.598           4.000e+01     
  17.000          90.000           -6.479e+00          -6.479e+00              79.519          -1.250e+02              95.716           4.000e+01     
  18.000          90.000           -6.067e+00          -6.067e+00              79.351          -1.250e+02              95.839           4.000e+01     
  19.000          90.000           -5.689e+00          -5.689e+00              79.169          -1.249e+02              95.967           4.000e+01     
  20.000          90.000           -5.342e+00          -5.342e+00              78.972          -1.249e+02              96.101           4.000e+01     
  21.000          90.000           -5.024e+00          -5.024e+00              78.759          -1.248e+02              96.241           4.000e+01     
  22.000          90.000           -4.734e+00          -4.734e+00              78.529          -1.248e+02              96.388           4.000e+01     
  23.000          90.000           -4.470e+00          -4.470e+00              78.281          -1.248e+02              96.544           4.000e+01     
  24.000          90.000           -4.231e+00          -4.231e+00              78.013          -1.247e+02              96.708           4.000e+01     
  25.000          90.000           -4.017e+00          -4.017e+00              77.723          -1.247e+02              96.882           4.000e+01     
  26.000          90.000           -3.827e+00          -3.827e+00              77.411          -1.247e+02              97.066           4.000e+01     
  27.000          90.000           -3.660e+00          -3.660e+00              77.073          -1.247e+02              97.262           4.000e+01     
  28.000          90.000           -3.516e+00          -3.516e+00              76.707          -1.246e+02              97.470           4.000e+01     
  29.000          90.000           -3.395e+00          -3.395e+00              76.311          -1.246e+02              97.692           4.000e+01     
  30.000          90.000           -3.297e+00          -3.297e+00              75.882          -1.246e+02              97.928           4.000e+01     
  31.000          90.000           -3.222e+00          -3.222e+00              75.415          -1.246e+02              98.180           4.000e+01     
  32.000          90.000           -3.170e+00          -3.170e+00              74.906          -1.246e+02              98.448           4.000e+01     
  33.000          90.000           -3.141e+00          -3.141e+00              74.352          -1.246e+02              98.734           4.000e+01     
  34.000          90.000           -3.137e+00          -3.137e+00              73.746          -1.246e+02              99.038           4.000e+01     
  35.000          90.000           -3.157e+00          -3.157e+00              73.081          -1.246e+02              99.363           4.000e+01     
  36.000          90.000           -3.202e+00          -3.202e+00              72.351          -1.246e+02              99.709           4.000e+01     
  37.000          90.000           -3.274e+00          -3.274e+00              71.546          -1.246e+02             100.078           4.000e+01     
  38.000          90.000           -3.373e+00          -3.373e+00              70.655          -1.246e+02             100.470           4.000e+01     
  39.000          90.000           -3.500e+00          -3.500e+00              69.665          -1.246e+02             100.889           4.000e+01     
  40.000          90.000           -3.656e+00          -3.656e+00              68.562          -1.246e+02             101.334           4.000e+01     
  41.000          90.000           -3.844e+00          -3.844e+00              67.327          -1.247e+02             101.807           4.000e+01     
  42.000          90.000           -4.063e+00          -4.063e+00              65.937          -1.247e+02             102.311           4.000e+01     
  43.000          90.000           -4.316e+00          -4.316e+00              64.365          -1.248e+02             102.847           4.000e+01     
  44.000          90.000           -4.603e+00          -4.603e+00              62.578          -1.248e+02             103.418           4.000e+01     
  45.000          90.000           -4.926e+00          -4.926e+00              60.535          -1.249e+02             104.024           4.000e+01     
  46.000          90.000           -5.284e+00          -5.284e+00              58.187          -1.250e+02             104.668           4.000e+01     
  47.000          90.000           -5.677e+00          -5.677e+00              55.470          -1.251e+02             105.354           4.000e+01     
  48.000          90.000           -6.104e+00          -6.104e+00              52.309          -1.252e+02             106.083           4.000e+01     
  49.000          90.000           -6.557e+00          -6.557e+00              48.617          -1.253e+02             106.859           4.000e+01     
  50.000          90.000           -7.029e+00          -7.029e+00              44.290          -1.254e+02             107.684           4.000e+01     
  51.000          90.000           -7.503e+00          -7.503e+00              39.221          -1.256e+02             108.563           4.000e+01     
  52.000          90.000           -7.955e+00          -7.955e+00              33.309          -1.257e+02             109.500           4.000e+01     
  53.000          90.000           -8.348e+00          -8.348e+00              26.494          -1.259e+02             110.498           4.000e+01     
  54.000          90.000           -8.641e+00          -8.641e+00              18.798          -1.260e+02             111.565           4.000e+01     
  55.000          90.000           -8.784e+00          -8.784e+00              10.379          -1.262e+02             112.704           4.000e+01     
  56.000          90.000           -8.740e+00          -8.740e+00               1.540          -1.265e+02             113.923           4.000e+01     
  57.000          90.000           -8.494e+00          -8.494e+00             352.695          -1.267e+02             115.229           4.000e+01     
  58.000          90.000           -8.061e+00          -8.061e+00             344.257          -1.269e+02             116.632           4.000e+01     
  59.000          90.000           -7.477e+00          -7.477e+00             336.538          -1.272e+02             118.140           4.000e+01     
  60.000          90.000           -6.789e+00          -6.789e+00             329.701          -1.275e+02             119.767           4.000e+01     
  61.000          90.000           -6.043e+00          -6.043e+00             323.771          -1.278e+02             121.526           4.000e+01     
  62.000          90.000           -5.274e+00          -5.274e+00             318.692          -1.281e+02             123.433           4.000e+01     
  63.000          90.000           -4.508e+00          -4.508e+00             314.364          -1.284e+02             125.507           4.000e+01     
  64.000          90.000           -3.759e+00          -3.759e+00             310.679          -1.288e+02             127.769           4.000e+01     
  65.000          90.000           -3.039e+00          -3.039e+00             307.534          -1.292e+02             130.247           4.000e+01     
  66.000          90.000           -2.353e+00          -2.353e+00             304.840          -1.296e+02             132.969           4.000e+01     
  67.000          90.000           -1.703e+00          -1.703e+00             302.521          -1.300e+02             135.972           4.000e+01     
  68.000          90.000           -1.090e+00          -1.090e+00             300.516          -1.305e+02             139.297           4.000e+01     
  69.000          90.000           -5.142e-01          -5.142e-01             298.773          -1.309e+02             142.989           4.000e+01     
  70.000          90.000            2.505e-02           2.505e-02             297.253          -1.314e+02             147.091           4.000e+01     
  71.000          90.000            5.296e-01           5.296e-01             295.920          -1.319e+02             151.667           4.000e+01     
  72.000          90.000            1.000e+00           1.000e+00             294.748          -1.323e+02             156.760           4.000e+01     
  73.000          90.000            1.438e+00           1.438e+00             293.714          -1.328e+02             162.406           4.000e+01     
  74.000          90.000            1.845e+00           1.845e+00             292.801          -1.332e+02             168.619           4.000e+01     
  75.000          90.000            2.222e+00           2.222e+00             291.992          -1.335e+02             175.373           4.000e+01     
  76.000          90.000            2.570e+00           2.570e+00             291.276          -1.337e+02             182.590           4.000e+01     
  77.000          90.000            2.890e+00           2.890e+00             290.642          -1.338e+02             190.135           4.000e+01     
  78.000          90.000            3.183e+00           3.183e+00             290.081          -1.338e+02             197.822           4.000e+01     
  79.000          90.000            3.450e+00           3.450e+00             289.585          -1.337e+02             205.443           4.000e+01     
  80.000          90.000            3.692e+00           3.692e+00             289.149          -1.335e+02             212.802           4.000e+01     
  81.000          90.000            3.908e+00           3.908e+00             288.768          -1.331e+02             219.744           4.000e+01     
  82.000          90.000            4.101e+00           4.101e+00             288.437          -1.327e+02             226.171           4.000e+01     
  83.000          90.000            4.269e+00           4.269e+00             288.152          -1.323e+02             232.041           4.000e+01     
  84.000          90.000            4.414e+00           4.414e+00             287.911          -1.318e+02             237.355           4.000e+01     
  85.000          90.000            4.537e+00           4.537e+00             287.710          -1.313e+02             242.143           4.000e+01     
  86.000          90.000            4.637e+00           4.637e+00             287.549          -1.307e+02             246.450           4.000e+01     
  87.000          90.000            4.714e+00           4.714e+00             287.425          -1.302e+02             250.327           4.000e+01     
  88.000          90.000            4.769e+00           4.769e+00             287.338          -1.297e+02             253.823           4.000e+01     
  89.000          90.000            4.802e+00           4.802e+00             287.285          -1.293e+02             256.986           4.000e+01     
  90.000          90.000            4.813e+00           4.813e+00             287.268          -1.288e+02             259.856           4.000e+01     
  91.000          90.000            4.802e+00           4.802e+00             287.285          -1.284e+02             262.471           4.000e+01     
  92.000          90.000            4.769e+00           4.769e+00             287.338          -1.279e+02             264.861           4.000e+01     
  93.000          90.000            4.714e+00           4.714e+00             287.425          -1.276e+02             267.053           4.000e+01     
  94.000          90.000            4.637e+00           4.637e+00             287.549          -1.272e+02             269.069           4.000e+01     
  95.000          90.000            4.537e+00           4.537e+00             287.710          -1.268e+02             270.928           4.000e+01     
  96.000          90.000            4.414e+00           4.414e+00             287.911          -1.265e+02             272.646           4.000e+01     
  97.000          90.000            4.269e+00           4.269e+00             288.152          -1.262e+02             274.236           4.000e+01     
  98.000          90.000            4.101e+00           4.101e+00             288.437          -1.259e+02             275.711           4.000e+01     
  99.000          90.000            3.908e+00           3.908e+00             288.768          -1.256e+02             277.080           4.000e+01     
 100.000          90.000            3.692e+00           3.692e+00             289.149          -1.254e+02             278.351           4.000e+01     
 101.000          90.000            3.450e+00           3.450e+00             289.585          -1.252e+02             279.532           4.000e+01     
 102.000          90.000            3.183e+00           3.183e+00             290.081          -1.249e+02             280.628           4.000e+01     
 103.000          90.000            2.890e+00           2.890e+00             290.642          -1.247e+02             281.645           4.000e+01     
 104.000          90.000            2.570e+00           2.570e+00             291.276          -1.246e+02             282.587           4.000e+01     
 105.000          90.000            2.222e+00           2.222e+00             291.992          -1.244e+02             283.459           4.000e+01     
 106.000          90.000            1.845e+00           1.845e+00             292.801          -1.242e+02             284.263           4.000e+01     
 107.000          90.000            1.438e+00           1.438e+00             293.714          -1.241e+02             285.003           4.000e+01     
 108.000          90.000            1.000e+00           1.000e+00             294.748          -1.240e+02             285.681           4.000e+01     
 109.000          90.000            5.296e-01           5.296e-01             295.920          -1.239e+02             286.300           4.000e+01     
 110.000          90.000            2.505e-02           2.505e-02             297.253          -1.238e+02             286.862           4.000e+01     
 111.000          90.000           -5.142e-01          -5.142e-01             298.773          -1.237e+02             287.369           4.000e+01     
 112.000          90.000           -1.090e+00          -1.090e+00             300.516          -1.237e+02             287.822           4.000e+01     
 113.000          90.000           -1.703e+00          -1.703e+00             302.521          -1.236e+02             288.222           4.000e+01     
 114.000          90.000           -2.353e+00          -2.353e+00             304.840          -1.236e+02             288.571           4.000e+01     
 115.000          90.000           -3.039e+00          -3.039e+00             307.534          -1.235e+02             288.871           4.000e+01     
 116.000          90.000           -3.759e+00          -3.759e+00             310.679          -1.235e+02             289.122           4.000e+01     
 117.000          90.000           -4.508e+00          -4.508e+00             314.364          -1.235e+02             289.325           4.000e+01     
 118.000          90.000           -5.274e+00          -5.274e+00             318.692          -1.235e+02             289.481           4.000e+01     
 119.000          90.000           -6.043e+00          -6.043e+00             323.771          -1.235e+02             289.591           4.000e+01     
 120.000          90.000           -6.789e+00          -6.789e+00             329.701          -1.236e+02             289.656           4.000e+01     
 121.000          90.000           -7.477e+00          -7.477e+00             336.539          -1.236e+02             289.677           4.000e+01     
 122.000          90.000           -8.061e+00          -8.061e+00             344.257          -1.236e+02             289.654           4.000e+01     
 123.000          90.000           -8.494e+00          -8.494e+00             352.695          -1.237e+02             289.588           4.000e+01     
 124.000          90.000           -8.740e+00          -8.740e+00               1.540          -1.237e+02             289.479           4.000e+01     
 125.000          90.000           -8.784e+00          -8.784e+00              10.379          -1.238e+02             289.329           4.000e+01     
 126.000          90.000           -8.641e+00          -8.641e+00              18.798          -1.239e+02             289.137           4.000e+01     
 127.000          90.000           -8.348e+00          -8.348e+00              26.494          -1.240e+02             288.905           4.000e+01     
 128.000          90.000           -7.955e+00          -7.955e+00              33.309          -1.241e+02             288.634           4.000e+01     
